BEGIN IONS
TITLE=File: "C:\Users\P42587\PDStudies\Beveridge_ExportToMGF\XLpeplib_Beveridge_QEx-HFX_DSS_R1.raw"; SpectrumID: "3172"; PrecursorID: "0"; scans: "15867"
PEPMASS=825.09802 846920.00000
CHARGE=3+
RTINSECONDS=4360
SCANS=15867
100.44960 1955.9
101.07126 44105.7
104.05306 6593.72
106.28777 2229.84
112.15308 2040.4
120.08107 6777.45
129.06531 2373.56
129.10263 3287.17
130.08604 3962.16
137.33537 2173.95
147.11264 5419.81
148.09641 2693.5
151.92049 2002.17
163.41954 2025.36
172.11555 3043.33
175.11893 34317.3
204.13428 29932.5
205.13812 4447.76
217.13692 56324.5
218.14029 7519.81
231.09842 2460.13
235.10767 55035.3
236.11159 3284.33
245.13177 35168.8
245.14929 18558.7
246.13528 3881.44
259.29926 2248.47
263.10251 29512
264.10623 3402.32
274.18753 29913.5
275.19189 2379.92
276.13443 5832.59
280.12921 9773.43
281.13217 2346.89
294.95166 14781.7
316.16885 10390.7
317.21875 9360.42
373.14938 2748.74
391.16083 49081.2
391.18848 3712.27
392.16403 9478.28
434.60748 2985.86
446.26270 7689.9
487.98843 2345.58
501.04700 2300.47
510.23517 4567.29
538.22992 21913.6
539.06055 2352.22
539.23236 7140
550.77051 2385.8
574.32086 6067.39
650.68536 3340.55
656.35608 3623.09
662.35931 3879.88
699.89380 3034.73
700.89093 2724.55
701.29205 5396.9
702.29572 3566.61
703.36212 8105.03
720.04224 3730.57
720.37878 5442.71
731.72748 17430
732.06036 29725.7
732.39069 20648.6
732.72772 11813.4
733.06317 2399.25
737.73279 33603.7
738.06635 48075.8
738.40063 31015.5
738.73322 9879.83
739.06793 3472.97
743.72266 47618.7
744.05707 47240.4
744.39154 32722.4
744.72546 6087.88
782.08313 3222.3
786.75677 10304.6
787.09033 7985.83
787.42273 8760.08
790.39343 44545.8
791.39764 12622.5
792.39844 3578.22
794.93182 2893.45
811.08911 2968.59
813.41870 4744.95
813.75464 3463.68
819.09448 15094.9
819.42719 40716.7
819.75916 31605
820.08972 20747.5
820.42853 13452.3
820.76312 4073.28
824.45728 16079.4
824.76617 11666.1
824.95764 20999
825.09778 416457
825.43127 499522
825.76562 406466
825.93262 23098.6
826.09998 216735
826.43146 64517.6
842.44995 17235.7
842.95099 14288.1
843.45270 11193.6
843.95386 3894.23
846.97021 4650.37
885.61444 2443.86
887.00299 36119.4
887.50116 30639.6
888.00232 17873.1
888.50043 7381.81
896.45844 2543.92
919.99921 2910.87
950.98608 2995.08
951.48334 3344.83
960.50958 2827.62
968.53052 63207.9
969.03357 64769.1
969.53375 43133.7
970.03778 13739.8
984.53510 2809.13
1002.52771 4642.41
1015.01855 3011.86
1042.06653 88774.7
1042.56665 109188
1043.06848 59266.4
1043.56970 24406
1044.06873 4618.82
1052.02002 2588.24
1070.52954 3239.47
1079.03845 5794.78
1079.55493 19316
1080.06140 26980.2
1080.56445 13241.2
1081.06482 4701.2
1097.58191 8437.69
1098.08704 6380.69
1098.59460 2738.63
1099.08411 2782.88
1100.55383 4028.62
1101.05286 4953.4
1101.55237 4770.97
1106.09485 29845.1
1106.59680 30285.4
1107.09692 19188
1107.59021 6432.25
1108.56824 2639.34
1115.07996 52895.9
1115.58301 67210.2
1116.08398 36908.8
1116.57959 13124.1
1117.56665 16697.9
1135.57983 6790.5
1136.08264 10984.4
1136.57581 9553.16
1137.08862 3537.23
1150.08533 5838.49
1150.58850 13700.9
1151.09131 7023.7
1164.09070 3307.03
1165.59814 3072.16
1171.62341 4812.02
1172.11938 6950.56
END IONS

BEGIN IONS
TITLE=File: "C:\Users\P42587\PDStudies\Beveridge_ExportToMGF\XLpeplib_Beveridge_QEx-HFX_DSS_R1.raw"; SpectrumID: "4432"; PrecursorID: "0"; scans: "19140"
PEPMASS=976.96460 369271.18750
CHARGE=4+
RTINSECONDS=5117
SCANS=19140
101.94491 2123.42
152.05841 2069.13
175.11896 11500.2
176.91783 2118.05
245.14967 4143.71
272.96982 2766.2
290.14575 16800.2
294.95193 13209.4
314.17044 2898.39
328.79916 2065.31
330.16632 2635.52
331.19543 2114.63
336.70895 2222.53
388.19952 4978.73
388.70135 3911.07
419.18826 54638.5
420.19162 8986.29
421.19333 3469.38
423.13351 4656.15
452.72208 8069.65
453.22177 3043.76
502.25482 5150.52
518.25714 17190
519.25891 2824.61
545.77350 3360.47
552.17865 2492.64
575.27838 142260
576.28101 32483.3
577.28253 8364.53
623.31256 2195.52
644.29883 3118.69
662.31018 126167
663.31342 43797.7
664.31586 10307.1
676.82068 6996.57
677.32330 2925.94
677.82471 4863.09
733.29883 2586.8
738.27057 2650.88
744.37415 3076.82
744.87750 4072.93
756.83807 10967.7
757.33691 6339.1
764.39905 2889.4
775.39490 62934.4
776.39728 24474.4
777.40045 5979.03
821.35358 9662.08
821.43231 3113.56
821.86230 10719.2
822.35797 6449.49
844.42859 6544.51
851.35480 2932.16
851.41827 3614.69
865.93372 2841.12
866.92847 3332.11
867.31604 3502.98
891.09796 2805.61
891.43842 3190.98
901.10040 2977.34
904.43683 101826
905.44073 45982.1
906.44330 13369.5
907.44141 3033.11
908.95599 2925.01
938.43793 10605.5
938.77142 18530.6
939.10883 17590.4
939.44092 7720.95
940.10864 3905.25
943.97742 2396.75
950.83466 3352.96
956.45178 2986.24
961.77545 8495.42
962.11377 5251.34
962.44806 4994.71
967.44824 5601.85
967.78217 6720.98
968.01099 3219.46
968.11401 7578
968.44684 6203.58
968.77966 3065.73
969.12073 2852.04
971.51501 2664.66
972.20850 10899.1
972.46246 14775.4
972.70453 7496.85
972.96094 7472.65
973.20911 7611.8
973.46344 4007.61
976.46832 14680.1
976.52454 19009.1
976.71423 38455.4
976.83356 8033.86
976.95337 52462.4
977.21472 35437.5
977.43433 94867
977.69586 11275.7
977.86707 16730.3
978.02411 19204.4
978.19708 19916.9
978.44293 5133.48
989.95129 4637.02
991.13696 4656.38
991.47009 6552.55
991.80176 5408.42
992.13898 2843.4
994.46344 5936.8
994.79724 12245.1
995.02368 2512.11
995.13409 14814.6
995.47241 6094.42
995.80023 5340.36
1000.46741 9655.52
1000.80768 18058.9
1001.13934 14539.5
1001.47510 13653.3
1001.79944 3634.32
1002.12958 5585.29
1003.50055 13968
1004.50507 7728.84
1030.47925 3532.25
1030.97449 4796.35
1031.49365 2206.15
1037.80823 5767.58
1038.14343 4706.66
1038.48718 4235.27
1038.81580 3239.94
1039.48071 5240.72
1039.98511 3666.76
1043.48486 24156.9
1043.81970 63799.9
1044.15540 47425.6
1044.48950 26299.6
1044.82043 19966.9
1045.14990 6947.97
1050.00439 3102.12
1053.02075 4295.2
1072.51978 4235.64
1072.84497 3440.44
1073.51367 3274.86
1075.51050 4264.28
1075.84412 7037.03
1076.17004 3768.57
1077.00781 2958.04
1081.17664 12856.1
1081.51123 24567.2
1081.84888 26330.6
1082.18274 23494.5
1082.51782 10798.2
1082.84644 6460.12
1090.53247 19386
1091.53748 11774.6
1092.53149 4020.42
1098.52124 3203.55
1101.18445 3111.49
1103.99915 5794.24
1104.18945 4095.76
1104.51733 23881.5
1104.84753 10056.3
1105.00073 6612.26
1105.18994 10158.6
1105.51648 4404.55
1110.18799 16260.3
1110.42029 2349.88
1110.52747 30149.3
1110.85840 30932
1111.19067 17461.6
1111.52185 13456.3
1111.86194 2635.22
1113.00879 5119.1
1113.50757 5708.54
1114.01538 5654.25
1120.01550 4749.27
1120.50879 2783.28
1121.02124 4167.83
1123.53125 3442.14
1123.85547 7701.39
1124.19458 4476.31
1129.53430 5873.83
1129.86389 5430.21
1130.19409 3163.88
1131.57019 14748.8
1132.06836 11978.9
1132.57202 6267.81
1156.88147 2946.86
1160.53979 6378.34
1161.04578 5045.09
1161.54932 6785.43
1162.21191 2736.14
1162.55115 6181.71
1163.22107 3407.67
1163.55420 5008.36
1170.04883 7460.8
1170.55444 2764.05
1171.06445 3810.51
1179.02332 2550.34
1196.08887 3593.31
1196.58813 6655.95
1197.09302 4585.98
1197.58044 3670.94
1204.05591 3360.05
1204.55005 3156.04
1205.56470 21429.5
1205.90002 3489.47
1206.56433 10844.8
1207.56006 3928.38
1213.56714 5262.49
1214.07166 3030.19
1234.57141 3337.12
1235.07068 4835.53
1235.58337 4283.04
1244.24097 5722.42
1276.60510 2679.57
1277.58850 5630.7
1278.09924 6596.48
1278.59180 3427.12
1279.09436 2990.15
1282.59692 2945.87
1291.12622 3274.93
1291.62256 5421.11
1292.11438 3172.38
1334.63428 3515.84
1335.13342 4561.16
1335.63721 2910.43
1336.64417 3305.45
1344.70557 4678.17
1352.62622 6591.94
1353.62219 3492.59
1378.15344 2952.45
1407.14001 4917.35
1407.64636 2589.22
1408.63623 3000.99
1451.67041 5258.87
1500.19885 4212.84
1500.68518 4557.62
1501.19934 3142.23
1502.21118 3764.4
1513.67419 3088.18
1535.20947 2612.24
1564.71692 3036.21
1565.22412 9969.41
1565.70789 7195.72
1566.22644 5901.8
2546.79395 2881.29
3715.26831 2521.78
END IONS
